Sample name: 2
Applied in-plane field: 200.0(Oe)
Applied current: 0.1000000000000002(mA)

Number Field(Oe) Resistance(Ohm)
1 -1000.0 -17.3393001
2 -975.0 -17.3267836
3 -950.0 -17.2883061
4 -925.0 -17.2815021
5 -900.0 -17.2764456
6 -875.0 -17.1530601
7 -850.0 -17.1555534
8 -825.0 -17.092278
9 -800.0 -17.0730726
10 -775.0 -17.0531933
11 -750.0 -17.0223316
12 -725.0 -16.9962527
13 -700.0 -16.986212
14 -675.0 -16.9280637
15 -650.0 -16.9132385
16 -625.0 -16.8788698
17 -600.0 -16.8291379
18 -575.0 -16.8044742
19 -550.0 -16.7749596
20 -525.0 -16.7164674
21 -500.0 -16.6719917
22 -475.0 -16.6459905
23 -450.0 -16.5586564
24 -425.0 -16.4953827
25 -400.0 -16.4127657
26 -375.0 -16.3190407
27 -350.0 -16.2389844
28 -325.0 -16.1247627
29 -300.0 -15.994512
30 -275.0 -15.8594001
31 -250.0 -15.6829796
32 -225.0 -15.5159934
33 -200.0 -15.3366079
34 -175.0 -15.0992692
35 -150.0 -14.8601129
36 -125.0 -14.6388123
37 -100.0 -14.3553131
38 -75.0 -14.0575232
39 -50.0 -13.7746979
40 -25.0 -13.4124898
41 -8.22619750096e-13 -13.0932753
42 25.0 -12.7632814
43 50.0 -12.5068046
44 75.0 -12.1373202
45 100.0 -11.8380523
46 125.0 -11.4625017
47 150.0 -11.1341224
48 175.0 -10.7756966
49 200.0 -10.431481
50 225.0 -10.1059996
51 250.0 -9.79588212
52 275.0 -9.4802399
53 300.0 -9.1931015
54 325.0 -8.91606388
55 350.0 -8.69974998
56 375.0 -8.47191338
57 400.0 -8.28464349
58 425.0 -8.11327126
59 450.0 -7.94123107
60 475.0 -7.81864705
61 500.0 -7.73805684
62 525.0 -7.63872773
63 550.0 -7.55482587
64 575.0 -7.48946008
65 600.0 -7.38265627
66 625.0 -7.31769476
67 650.0 -7.24087307
68 675.0 -7.19909631
69 700.0 -7.16742418
70 725.0 -7.10306504
71 750.0 -7.06660842
72 775.0 -7.02354737
73 800.0 -6.99753649
74 825.0 -6.94362652
75 850.0 -6.93108848
76 875.0 -6.88614535
77 900.0 -6.84807144
78 925.0 -6.85203794
79 950.0 -6.81153318
80 975.0 -6.76746187
81 1000.0 -6.78350544
82 975.0 -6.9571681
83 950.0 -6.98560016
84 925.0 -6.99024989
85 900.0 -7.02792422
86 875.0 -7.04975793
87 850.0 -7.0799475
88 825.0 -7.10973276
89 800.0 -7.15083449
90 775.0 -7.17448698
91 750.0 -7.21074139
92 725.0 -7.24571495
93 700.0 -7.29558581
94 675.0 -7.31290389
95 650.0 -7.36128755
96 625.0 -7.39087062
97 600.0 -7.43844541
98 575.0 -7.5160088
99 550.0 -7.54417601
100 525.0 -7.6032119
101 500.0 -7.65497103
102 475.0 -7.74439421
103 450.0 -7.80497504
104 425.0 -7.89432077
105 400.0 -7.99163343
106 375.0 -8.11373892
107 350.0 -8.22068277
108 325.0 -8.38288431
109 300.0 -8.57695441
110 275.0 -8.75883496
111 250.0 -8.94772734
112 225.0 -9.19227762
113 200.0 -9.46694886
114 175.0 -9.74021098
115 150.0 -10.0417638
116 125.0 -10.3629922
117 100.0 -10.6489912
118 75.0 -11.00029
119 50.0 -11.3355358
120 25.0 -11.6841977
121 -7.65887353538e-13 -11.9750427
122 -25.0 -12.3057137
123 -50.0 -12.6837501
124 -75.0 -13.0260204
125 -100.0 -13.3501424
126 -125.0 -13.6598628
127 -150.0 -13.9713199
128 -175.0 -14.2871633
129 -200.0 -14.6028166
130 -225.0 -14.8602357
131 -250.0 -15.1428028
132 -275.0 -15.3915172
133 -300.0 -15.6162457
134 -325.0 -15.8132985
135 -350.0 -15.9638396
136 -375.0 -16.1497612
137 -400.0 -16.2942388
138 -425.0 -16.4210487
139 -450.0 -16.5325196
140 -475.0 -16.6201919
141 -500.0 -16.7130399
142 -525.0 -16.7758462
143 -550.0 -16.827459
144 -575.0 -16.8530767
145 -600.0 -16.9710075
146 -625.0 -17.0013981
147 -650.0 -17.0548352
148 -675.0 -17.0877187
149 -700.0 -17.1352983
150 -725.0 -17.1693296
151 -750.0 -17.1762926
152 -775.0 -17.2394248
153 -800.0 -17.2610039
154 -825.0 -17.2955158
155 -850.0 -17.3215135
156 -875.0 -17.3409303
157 -900.0 -17.3441637
158 -925.0 -17.3603893
159 -950.0 -17.3721705
160 -975.0 -17.4042413
161 -1000.0 -17.4338244
