sample name
Applied in-plane field: 100.0(Oe)

Initial resistance: 1737.331138822433Ohm 
Number Current(mA) Resistance(Ohm)
Pulse width 0.15000000000000002s
1 0 1.98757851
2 0.55 1.98775486
3 1.1 1.98777294
4 1.6500000000000001 1.98845895
5 2.2 1.9886248
6 2.75 1.98797185
7 3.3 1.98694028
8 3.8499999999999996 1.97107163
9 4.3999999999999995 1.94456916
10 4.949999999999999 1.91609247
11 5.499999999999999 1.88739474
12 6.049999999999999 1.86354515
13 6.599999999999999 1.84724308
14 7.149999999999999 1.83396141
15 7.699999999999998 1.82400671
16 8.249999999999998 1.8172625
17 8.799999999999999 1.81040577
18 9.35 1.80293251
19 9.9 1.79784182
20 10.450000000000001 1.79670402
21 11.000000000000002 1.7956252
22 10.450000000000001 1.79495145
23 9.9 1.79505225
24 9.35 1.79369834
25 8.799999999999999 1.79289617
26 8.249999999999998 1.7956116
27 7.699999999999998 1.79511821
28 7.149999999999999 1.7952195
29 6.599999999999999 1.79530011
30 6.049999999999999 1.79682335
31 5.499999999999999 1.79792173
32 4.949999999999999 1.79924234
33 4.3999999999999995 1.79916727
34 3.8499999999999996 1.80102196
35 3.3 1.80008576
36 2.75 1.8005103
37 2.2 1.80130636
38 1.6500000000000001 1.80177229
39 1.1 1.80227145
40 0.55 1.80266854
41 0.0 1.80265502
42 -0.55 1.80299437
43 -1.1 1.80343883
44 -1.6500000000000001 1.8041797
45 -2.2 1.80436719
46 -2.75 1.80901549
47 -3.3 1.82931431
48 -3.8499999999999996 1.86209728
49 -4.3999999999999995 1.90010849
50 -4.949999999999999 1.92641665
51 -5.499999999999999 1.94160055
52 -6.049999999999999 1.95399067
53 -6.599999999999999 1.95852842
54 -7.149999999999999 1.96964053
55 -7.699999999999998 1.97485416
56 -8.249999999999998 1.97627677
57 -8.799999999999999 1.97700392
58 -9.35 1.97752941
59 -9.9 1.97971013
60 -10.450000000000001 1.97943277
61 -11.000000000000002 1.97915023
62 -10.450000000000001 1.97869007
63 -9.9 1.97875206
64 -9.35 1.97907537
65 -8.799999999999999 1.9782159
66 -8.249999999999998 1.97773998
67 -7.699999999999998 1.97852308
68 -7.149999999999999 1.9785521
69 -6.599999999999999 1.97975161
70 -6.049999999999999 1.98021715
71 -5.499999999999999 1.98104616
72 -4.949999999999999 1.9807764
73 -4.3999999999999995 1.98125835
74 -3.8499999999999996 1.98124791
75 -3.3 1.98151208
76 -2.75 1.98190134
77 -2.2 1.98230643
78 -1.6500000000000001 1.98152534
79 -1.1 1.9821197
80 -0.55 1.98345987
81 0.0 1.98328276
